ENVI
description = {
  New spectral library file [Thu Jun 13 14:11:06 2013]}
samples = 156
lines   = 1
bands   = 1
header offset = 0
file type = ENVI Spectral Library
data type = 5
interleave = bsq
sensor type = Unknown
byte order = 0
wavelength units = Nanometers
reflectance scale factor = 1.000000
z plot titles = {Wavelength, Value}
band names = {
 Spectral Library}
spectra names = {
 X:816 Y:755}
wavelength = {
 400.938721, 404.152496, 407.366302, 410.580048, 413.793854, 417.007629,
 420.221405, 423.435181, 426.648956, 429.862732, 433.076508, 436.290314,
 439.504089, 442.717865, 445.931641, 449.145416, 452.359192, 455.572968,
 458.786774, 462.000549, 465.214325, 468.428101, 471.641876, 474.855652,
 478.069427, 481.283234, 484.497009, 487.710785, 490.924561, 494.138336,
 497.352112, 500.565887, 503.779694, 506.993439, 510.207245, 513.421021,
 516.634766, 519.848572, 523.062378, 526.276123, 529.489929, 532.703674,
 535.917480, 539.131226, 542.345032, 545.558838, 548.772583, 551.986389,
 555.200134, 558.413940, 561.627686, 564.841492, 568.055298, 571.269043,
 574.482849, 577.696594, 580.910400, 584.124146, 587.337952, 590.551758,
 593.765503, 596.979309, 600.193054, 603.406860, 606.620605, 609.834412,
 613.048157, 616.261963, 619.475769, 622.689514, 625.903320, 629.117065,
 632.330872, 635.544617, 638.758423, 641.972229, 645.185974, 648.399780,
 651.613525, 654.827332, 658.041077, 661.254883, 664.468689, 667.682434,
 670.896240, 674.109985, 677.323792, 680.537537, 683.751343, 686.965149,
 690.178894, 693.392700, 696.606445, 699.820251, 703.033997, 706.247803,
 709.461548, 712.675354, 715.889160, 719.102905, 722.316711, 725.530457,
 728.744263, 731.958008, 735.171814, 738.385620, 741.599365, 744.813171,
 748.026917, 751.240723, 754.454468, 757.668274, 760.882080, 764.095825,
 767.309631, 770.523376, 773.737183, 776.950928, 780.164734, 783.378540,
 786.592285, 789.806030, 793.019836, 796.233643, 799.447388, 802.661194,
 805.874939, 809.088745, 812.302490, 815.516296, 818.730103, 821.943848,
 825.157654, 828.371399, 831.585205, 834.798950, 838.012756, 841.226563,
 844.440308, 847.654114, 850.867859, 854.081665, 857.295410, 860.509216,
 863.723022, 866.936768, 870.150574, 873.364319, 876.578125, 879.791870,
 883.005676, 886.219421, 889.433228, 892.647034, 895.860779, 899.074585}
